nm;arb.u
387.12;43.0
387.44;47.0
387.76;50.0
388.08;53.0
388.39;55.0
388.71;57.0
389.03;56.0
389.35;58.0
389.67;58.0
389.99;60.0
390.31;63.0
390.63;66.0
390.95;69.0
391.28;72.0
391.60;74.0
391.92;76.0
392.24;79.0
392.56;79.0
392.88;81.0
393.21;82.0
393.53;83.0
393.85;84.0
394.18;86.0
394.50;86.0
394.82;88.0
395.15;89.0
395.47;91.0
395.80;92.0
396.12;93.0
396.45;93.0
396.77;95.0
397.10;96.0
397.43;97.0
397.75;99.0
398.08;100.0
398.41;101.0
398.73;104.0
399.06;106.0
399.39;108.0
399.72;110.0
400.04;111.0
400.37;113.0
400.70;116.0
401.03;118.0
401.36;121.0
401.69;123.0
402.02;126.0
402.35;130.0
402.68;133.0
403.01;137.0
403.34;141.0
403.67;145.0
404.00;150.0
404.34;155.0
404.67;160.0
405.00;166.0
405.33;171.0
405.67;179.0
406.00;186.0
406.33;194.0
406.66;216.0
407.00;240.0
407.33;254.0
407.67;265.0
408.00;274.0
408.34;280.0
408.67;290.0
409.01;297.0
409.34;302.0
409.68;308.0
410.01;304.0
410.35;302.0
410.69;299.0
411.02;294.0
411.36;291.0
411.70;273.0
412.04;259.0
412.38;243.0
412.71;223.0
413.05;203.0
413.39;185.0
413.73;170.0
414.07;161.0
414.41;153.0
414.75;146.0
415.09;140.0
415.43;135.0
415.77;129.0
416.11;125.0
416.45;121.0
416.79;118.0
417.14;114.0
417.48;111.0
417.82;107.0
418.16;104.0
418.50;100.0
418.85;97.0
419.19;93.0
419.53;91.0
419.88;88.0
420.22;86.0
420.57;84.0
420.91;81.0
421.26;80.0
421.60;78.0
421.95;76.0
422.29;74.0
422.64;73.0
422.98;71.0
423.33;70.0
423.68;68.0
424.02;67.0
424.37;66.0
424.72;66.0
425.07;64.0
425.42;63.0
425.76;62.0
426.11;61.0
426.46;60.0
426.81;59.0
427.16;59.0
427.51;58.0
427.86;57.0
428.21;56.0
428.56;54.0
428.91;54.0
429.26;54.0
429.61;52.0
429.96;52.0
430.32;51.0
430.67;50.0
431.02;50.0
431.37;50.0
431.73;50.0
432.08;49.0
432.43;49.0
432.79;49.0
433.14;49.0
433.49;49.0
433.85;49.0
434.20;49.0
434.56;50.0
434.91;52.0
435.27;54.0
435.62;57.0
435.98;60.0
436.34;64.0
436.69;67.0
437.05;72.0
437.41;76.0
437.76;80.0
438.12;84.0
438.48;89.0
438.84;93.0
439.20;97.0
439.55;100.0
439.91;104.0
440.27;110.0
440.63;116.0
440.99;121.0
441.35;129.0
441.71;134.0
442.07;140.0
442.43;146.0
442.79;151.0
443.15;157.0
443.52;164.0
443.88;172.0
444.24;180.0
444.60;186.0
444.97;189.0
445.33;192.0
445.69;193.0
446.05;195.0
446.42;196.0
446.78;196.0
447.15;196.0
447.51;196.0
447.88;196.0
448.24;195.0
448.61;195.0
448.97;193.0
449.34;193.0
449.70;191.0
450.07;190.0
450.44;188.0
450.80;187.0
451.17;187.0
451.54;185.0
451.90;183.0
452.27;183.0
452.64;181.0
453.01;180.0
453.38;180.0
453.75;180.0
454.12;180.0
454.49;178.0
454.85;178.0
455.22;177.0
455.60;176.0
455.97;174.0
456.34;173.0
456.71;171.0
457.08;168.0
457.45;167.0
457.82;165.0
458.19;165.0
458.57;165.0
458.94;164.0
459.31;163.0
459.69;162.0
460.06;161.0
460.43;161.0
460.81;159.0
461.18;157.0
461.56;157.0
461.93;155.0
462.30;153.0
462.68;152.0
463.06;150.0
463.43;149.0
463.81;148.0
464.18;146.0
464.56;144.0
464.94;142.0
465.31;139.0
465.69;137.0
466.07;135.0
466.45;133.0
466.83;131.0
467.20;129.0
467.58;126.0
467.96;124.0
468.34;121.0
468.72;119.0
469.10;118.0
469.48;116.0
469.86;114.0
470.24;112.0
470.62;109.0
471.00;106.0
471.38;103.0
471.77;101.0
472.15;99.0
472.53;97.0
472.91;94.0
473.29;92.0
473.68;90.0
474.06;88.0
474.44;86.0
474.83;84.0
475.21;83.0
475.60;82.0
475.98;81.0
476.37;79.0
476.75;77.0
477.14;77.0
477.52;75.0
477.91;74.0
478.29;72.0
478.68;72.0
479.07;70.0
479.45;68.0
479.84;67.0
480.23;65.0
480.62;63.0
481.00;62.0
481.39;61.0
481.78;60.0
482.17;58.0
482.56;57.0
482.95;56.0
483.34;55.0
483.73;54.0
484.12;54.0
484.51;53.0
484.90;51.0
485.29;51.0
485.68;50.0
486.07;49.0
486.46;49.0
486.85;48.0
487.25;47.0
487.64;47.0
488.03;46.0
488.43;46.0
488.82;46.0
489.21;45.0
489.61;45.0
490.00;44.0
490.39;44.0
490.79;44.0
491.18;44.0
491.58;43.0
491.97;42.0
492.37;43.0
492.77;43.0
493.16;42.0
493.56;42.0
493.95;43.0
494.35;43.0
494.75;43.0
495.15;43.0
495.54;44.0
495.94;44.0
496.34;44.0
496.74;44.0
497.14;44.0
497.54;45.0
497.94;46.0
498.34;46.0
498.74;46.0
499.14;46.0
499.54;48.0
499.94;48.0
500.34;48.0
500.74;49.0
501.14;50.0
501.54;51.0
501.94;51.0
502.35;51.0
502.75;53.0
503.15;53.0
503.55;54.0
503.96;55.0
504.36;56.0
504.76;57.0
505.17;58.0
505.57;59.0
505.98;60.0
506.38;61.0
506.79;61.0
507.19;62.0
507.60;64.0
508.00;64.0
508.41;66.0
508.82;66.0
509.22;67.0
509.63;68.0
510.04;70.0
510.45;70.0
510.85;71.0
511.26;72.0
511.67;74.0
512.08;74.0
512.49;76.0
512.90;76.0
513.31;78.0
513.72;79.0
514.12;79.0
514.54;79.0
514.95;81.0
515.36;82.0
515.77;83.0
516.18;84.0
516.59;84.0
517.00;85.0
517.41;86.0
517.83;87.0
518.24;87.0
518.65;87.0
519.06;89.0
519.48;89.0
519.89;89.0
520.30;90.0
520.72;90.0
521.13;91.0
521.55;90.0
521.96;91.0
522.38;91.0
522.79;92.0
523.21;92.0
523.63;92.0
524.04;92.0
524.46;92.0
524.87;92.0
525.29;92.0
525.71;92.0
526.13;92.0
526.54;92.0
526.96;92.0
527.38;91.0
527.80;92.0
528.22;91.0
528.64;91.0
529.06;92.0
529.48;92.0
529.90;92.0
530.32;91.0
530.74;91.0
531.16;91.0
531.58;91.0
532.00;90.0
532.42;90.0
532.84;90.0
533.27;90.0
533.69;89.0
534.11;89.0
534.53;89.0
534.96;90.0
535.38;89.0
535.80;88.0
536.23;88.0
536.65;89.0
537.08;88.0
537.50;88.0
537.93;88.0
538.35;88.0
538.78;88.0
539.20;87.0
539.63;87.0
540.05;87.0
540.48;87.0
540.91;87.0
541.33;87.0
541.76;87.0
542.19;87.0
542.62;87.0
543.05;87.0
543.47;88.0
543.90;90.0
544.33;90.0
544.76;91.0
545.19;90.0
545.62;90.0
546.05;89.0
546.48;88.0
546.91;86.0
547.34;84.0
547.77;83.0
548.20;80.0
548.63;79.0
549.07;77.0
549.50;75.0
549.93;75.0
550.36;74.0
550.80;74.0
551.23;73.0
551.66;72.0
552.10;72.0
552.53;71.0
552.96;70.0
553.40;69.0
553.83;69.0
554.27;69.0
554.70;67.0
555.14;67.0
555.58;67.0
556.01;66.0
556.45;64.0
556.88;64.0
557.32;64.0
557.76;64.0
558.20;63.0
558.63;63.0
559.07;61.0
559.51;61.0
559.95;61.0
560.39;59.0
560.83;59.0
561.26;59.0
561.70;59.0
562.14;58.0
562.58;58.0
563.02;58.0
563.46;56.0
563.91;56.0
564.35;56.0
564.79;56.0
565.23;56.0
565.67;56.0
566.11;56.0
566.56;55.0
567.00;55.0
567.44;55.0
567.88;56.0
568.33;56.0
568.77;56.0
569.22;56.0
569.66;57.0
570.10;57.0
570.55;58.0
570.99;59.0
571.44;59.0
571.89;60.0
572.33;61.0
572.78;62.0
573.22;62.0
573.67;63.0
574.12;64.0
574.56;64.0
575.01;64.0
575.46;64.0
575.91;65.0
576.36;66.0
576.80;66.0
577.25;66.0
577.70;66.0
578.15;66.0
578.60;66.0
579.05;66.0
579.50;66.0
579.95;66.0
580.40;66.0
580.85;66.0
581.30;66.0
581.75;66.0
582.21;66.0
582.66;66.0
583.11;66.0
583.56;66.0
584.02;65.0
584.47;65.0
584.92;65.0
585.37;64.0
585.83;63.0
586.28;63.0
586.74;63.0
587.19;63.0
587.65;63.0
588.10;62.0
588.56;61.0
589.01;61.0
589.47;61.0
589.92;60.0
590.38;60.0
590.84;59.0
591.29;58.0
591.75;58.0
592.21;58.0
592.67;58.0
593.12;56.0
593.58;56.0
594.04;56.0
594.50;55.0
594.96;55.0
595.42;54.0
595.88;53.0
596.34;53.0
596.80;52.0
597.26;51.0
597.72;51.0
598.18;50.0
598.64;50.0
599.10;50.0
599.56;48.0
600.03;48.0
600.49;48.0
600.95;47.0
601.41;46.0
601.88;46.0
602.34;45.0
602.80;45.0
603.27;45.0
603.73;44.0
604.20;43.0
604.66;43.0
605.12;42.0
605.59;41.0
606.06;41.0
606.52;41.0
606.99;40.0
607.45;40.0
607.92;39.0
608.39;38.0
608.85;39.0
609.32;38.0
609.79;38.0
610.26;37.0
610.72;36.0
611.19;36.0
611.66;36.0
612.13;35.0
612.60;34.0
613.07;34.0
613.54;34.0
614.01;33.0
614.48;33.0
614.95;33.0
615.42;33.0
615.89;32.0
616.36;31.0
616.83;31.0
617.30;31.0
617.78;31.0
618.25;30.0
618.72;30.0
619.19;32.0
619.67;32.0
620.14;32.0
620.61;33.0
621.09;34.0
621.56;34.0
622.04;35.0
622.51;35.0
622.98;35.0
623.46;35.0
623.94;35.0
624.41;34.0
624.89;34.0
625.36;33.0
625.84;33.0
626.32;32.0
626.79;33.0
627.27;34.0
627.75;34.0
628.23;33.0
628.70;33.0
629.18;32.0
629.66;33.0
630.14;32.0
630.62;32.0
631.10;32.0
631.58;32.0
632.06;32.0
632.54;32.0
633.02;31.0
633.50;31.0
633.98;31.0
634.46;30.0
634.94;31.0
635.42;30.0
635.91;30.0
636.39;30.0
636.87;30.0
637.35;30.0
637.84;30.0
638.32;30.0
638.80;30.0
639.29;30.0
639.77;30.0
640.26;30.0
640.74;31.0
641.23;31.0
641.71;32.0
642.20;32.0
642.68;32.0
643.17;32.0
643.65;33.0
644.14;34.0
644.63;34.0
645.12;35.0
645.60;35.0
646.09;36.0
646.58;36.0
647.07;37.0
647.55;37.0
648.04;38.0
648.53;38.0
649.02;39.0
649.51;39.0
650.00;39.0
650.49;39.0
650.98;39.0
651.47;40.0
651.96;39.0
652.45;39.0
652.94;39.0
653.44;41.0
653.93;41.0
654.42;41.0
654.91;41.0
655.40;41.0
655.90;41.0
656.39;41.0
656.88;41.0
657.38;41.0
657.87;41.0
658.37;41.0
658.86;41.0
659.35;41.0
659.85;42.0
660.34;42.0
660.84;42.0
661.34;42.0
661.83;42.0
662.33;43.0
662.82;43.0
663.32;43.0
663.82;43.0
664.32;43.0
664.81;43.0
665.31;43.0
665.81;43.0
666.31;43.0
666.81;43.0
667.31;43.0
667.80;43.0
668.30;45.0
668.80;45.0
669.30;45.0
669.80;45.0
670.30;45.0
670.81;45.0
671.31;45.0
671.81;46.0
672.31;46.0
672.81;46.0
673.31;46.0
673.82;46.0
674.32;46.0
674.82;46.0
675.32;47.0
675.83;47.0
676.33;47.0
676.84;46.0
677.34;46.0
677.84;46.0
678.35;46.0
678.85;46.0
679.36;46.0
679.86;47.0
680.37;46.0
680.88;46.0
681.38;46.0
681.89;46.0
682.40;46.0
682.90;46.0
683.41;46.0
683.92;47.0
684.43;47.0
684.93;47.0
685.44;47.0
685.95;47.0
686.46;47.0
686.97;47.0
687.48;47.0
687.99;47.0
688.50;46.0
689.01;47.0
689.52;46.0
690.03;46.0
690.54;46.0
691.05;46.0
691.57;46.0
692.08;46.0
692.59;46.0
693.10;46.0
693.61;46.0
694.13;46.0
694.64;47.0
695.15;46.0
695.67;46.0
696.18;46.0
696.70;46.0
697.21;46.0
697.73;46.0
698.24;46.0
698.76;46.0
699.27;46.0
699.79;46.0
700.30;46.0
700.82;46.0
701.34;46.0
701.85;46.0
702.37;46.0
702.89;46.0
703.41;46.0
703.92;46.0
704.44;45.0
704.96;45.0
705.48;46.0
706.00;45.0
706.52;46.0
707.04;45.0
707.56;45.0
708.08;45.0
708.60;45.0
709.12;45.0
709.64;45.0
710.16;44.0
710.68;44.0
711.20;44.0
711.72;44.0
712.25;44.0
712.77;43.0
713.29;44.0
713.81;44.0
714.34;45.0
714.86;44.0
715.39;44.0
715.91;43.0
716.43;43.0
716.96;43.0
717.48;43.0
718.01;43.0
718.53;43.0
719.06;43.0
719.58;43.0
720.11;43.0
720.64;41.0
721.16;38.0
721.69;35.0
