t (s),V (mV)
0,17.0359
0.995,17.0112
1.995,16.9954
2.995,16.9805
3.995,16.9657
4.995,16.9504
5.995,16.9366
6.995,16.9237
7.995,16.9124
8.995,16.9007
9.995,16.8892
10.995,16.8788
11.995,16.866
12.995,16.8564
13.995,16.8451
14.995,16.8349
15.995,16.8249
16.996,16.8134
17.995,16.8042
18.995,16.7937
19.995,16.7849
20.995,16.7747
21.995,16.7655
22.995,16.7552
23.995,16.7455
24.995,16.7349
25.995,16.7247
26.995,16.7148
27.995,16.7059
28.995,16.6976
29.995,16.6866
30.995,16.6754
31.995,16.6659
32.996,16.6567
33.995,16.646
34.996,16.634
35.995,16.6266
36.995,16.6172
37.995,16.6044
38.995,16.593
39.995,16.5833
40.995,16.5712
41.995,16.5612
42.995,16.5519
43.995,16.5407
44.995,16.5321
45.995,16.5195
46.995,16.5113
47.995,16.5009
48.995,16.491
49.996,16.4794
50.995,16.4705
51.995,16.4621
52.996,16.4516
53.995,16.4404
54.995,16.4306
55.995,16.421
56.995,16.4103
57.996,16.4004
58.995,16.3904
59.995,16.3811
60.995,16.3708
61.995,16.3613
62.996,16.3519
63.995,16.3409
64.995,16.3315
65.995,16.3204
66.996,16.3104
67.999,16.3013
68.995,16.2896
69.995,16.2801
70.995,16.2688
71.995,16.2593
72.995,16.2478
73.995,16.2362
74.995,16.2256
75.996,16.2159
76.995,16.206
77.995,16.1966
78.995,16.1851
79.995,16.1744
80.995,16.1643
81.995,16.1548
82.995,16.1456
83.995,16.1351
84.995,16.1257
85.995,16.1154
86.995,16.1052
87.995,16.0952
88.995,16.0855
89.995,16.0753
90.995,16.0652
91.995,16.0553
92.995,16.0458
93.995,16.0356
94.995,16.0262
95.995,16.016
96.995,16.0065
97.995,15.9963
98.996,15.9873
99.995,15.9777
100.994,15.9679
101.995,15.957
102.995,15.9486
103.995,15.9392
104.995,15.929
105.995,15.9192
106.995,15.9104
107.995,15.9015
108.995,15.8928
109.995,15.8847
110.995,15.8757
111.995,15.8668
112.995,15.8574
113.996,15.8462
114.995,15.8383
115.995,15.8301
116.995,15.8211
117.995,15.8136
118.995,15.8049
119.995,15.7981
120.995,15.7841
121.995,15.7725
122.995,15.7629
123.995,15.7534
124.995,15.7453
125.995,15.7366
126.996,15.7248
127.995,15.7168
128.995,15.7081
129.995,15.698
130.995,15.6901
131.995,15.6809
132.995,15.6723
133.995,15.6634
134.995,15.6534
135.995,15.6447
136.995,15.6348
137.995,15.6264
138.995,15.6181
139.995,15.6091
140.995,15.5986
141.995,15.5912
142.995,15.5831
143.995,15.5725
144.995,15.5644
145.995,15.5559
146.995,15.5455
147.995,15.538
148.995,15.529
149.995,15.5191
150.995,15.5104
151.995,15.502
152.995,15.4934
153.995,15.4866
154.995,15.4784
155.995,15.4691
156.995,15.4591
157.995,15.4469
158.995,15.4384
159.995,15.4301
160.995,15.4209
161.995,15.411
162.995,15.4021
163.995,15.3933
164.995,15.3835
165.995,15.3737
166.995,15.3641
167.995,15.3556
168.995,15.3466
169.995,15.3375
170.995,15.3283
171.995,15.3189
172.995,15.3111
173.995,15.3023
174.995,15.2917
175.995,15.284
176.995,15.275
177.995,15.2653
178.995,15.255
179.995,15.2456
180.995,15.2367
181.995,15.2283
182.995,15.2189
183.995,15.2094
184.995,15.1997
185.995,15.1908
186.995,15.1828
187.995,15.1732
188.996,15.1637
189.995,15.1537
190.995,15.1448
191.995,15.136
192.995,15.1273
193.995,15.121
194.995,15.1109
195.995,15.101
196.995,15.0951
197.995,15.0852
198.996,15.076
199.995,15.0679
200.996,15.0578
201.995,15.0521
202.995,15.0434
203.995,15.0355
204.995,15.0266
205.995,15.0189
206.995,15.0194
207.995,15.0047
208.995,14.9934
209.995,14.9837
210.995,14.9765
211.995,14.9673
212.995,14.9599
213.995,14.9532
214.996,14.9429
215.995,14.9358
216.995,14.9281
217.995,14.9179
218.995,14.9108
219.995,14.9012
220.995,14.8928
221.996,14.8863
222.995,14.8773
223.995,14.8862
224.996,14.8706
225.995,14.8563
226.995,14.8453
227.995,14.8361
228.995,14.8265
229.995,14.818
230.995,14.8088
231.996,14.8006
232.995,14.7912
233.995,14.7825
234.995,14.7745
235.995,14.7691
236.995,14.7608
237.995,14.7509
238.995,14.7403
239.995,14.7316
240.995,14.7288
241.995,14.7181
242.995,14.7071
243.995,14.6971
244.995,14.689
245.995,14.6802
246.995,14.6718
247.995,14.6644
248.996,14.6573
249.995,14.6486
250.995,14.6418
251.995,14.6317
252.995,14.6239
253.995,14.6151
254.995,14.6062
255.995,14.5976
256.995,14.5876
257.995,14.58
258.995,14.5713
259.995,14.5629
260.995,14.5543
261.996,14.546
262.995,14.5371
263.995,14.5288
264.995,14.5211
265.996,14.5121
266.995,14.5034
267.995,14.4945
268.996,14.4864
269.995,14.4779
270.995,14.4689
271.995,14.4614
272.995,14.4535
273.995,14.4457
274.995,14.4372
275.995,14.4285
276.995,14.4205
277.995,14.4127
278.995,14.404
279.995,14.3953
280.995,14.3873
281.995,14.3786
282.995,14.3716
283.995,14.3616
284.996,14.354
285.995,14.3458
286.995,14.3362
287.995,14.327
288.995,14.3181
289.995,14.3117
290.995,14.3022
291.995,14.2945
292.995,14.2869
293.995,14.2779
294.995,14.2695
295.995,14.2629
296.995,14.2525
297.996,14.2448
298.996,14.2373
299.995,14.2285
300.995,14.2187
301.995,14.2116
302.995,14.2012
303.995,14.1926
304.995,14.1831
305.995,14.1757
306.995,14.1676
307.995,14.1595
308.995,14.1502
309.995,14.1418
310.995,14.1336
311.995,14.1257
312.995,14.1176
313.995,14.1084
314.995,14.0997
315.995,14.0916
316.995,14.0836
317.995,14.0754
318.995,14.0669
319.995,14.0593
320.995,14.0506
321.995,14.0431
322.995,14.0348
323.995,14.0267
324.995,14.019
325.995,14.0112
326.995,14.0034
327.995,13.9961
328.995,13.988
329.995,13.9791
330.995,13.9709
331.995,13.9638
332.995,13.9553
333.995,13.9471
334.995,13.9391
335.995,13.9307
336.995,13.9234
337.995,13.9157
338.995,13.9065
339.995,13.8985
340.995,13.8914
341.995,13.8832
342.995,13.8757
343.995,13.8682
344.996,13.8598
345.995,13.8518
346.995,13.8444
347.995,13.836
348.995,13.8281
349.995,13.8208
350.995,13.8127
351.995,13.8058
352.995,13.7982
353.995,13.7914
354.995,13.7834
355.995,13.7756
356.995,13.7673
357.995,13.7605
358.995,13.752
359.995,13.7452
360.995,13.7365
361.995,13.7297
362.995,13.7254
363.995,13.7169
364.995,13.7076
365.995,13.6994
366.995,13.6927
367.995,13.6843
368.996,13.6764
369.995,13.6698
370.995,13.6622
371.996,13.6533
372.996,13.6462
373.995,13.6381
374.995,13.6299
375.996,13.6232
376.995,13.6142
377.995,13.6075
378.995,13.5984
379.995,13.5908
380.995,13.5824
381.995,13.5731
382.995,13.566
383.995,13.5582
384.995,13.5479
385.996,13.5413
386.995,13.5334
387.995,13.5254
388.995,13.5167
389.995,13.5093
390.995,13.5009
391.995,13.4935
392.995,13.4855
393.995,13.478
394.995,13.4699
395.995,13.462
396.995,13.4541
397.995,13.4461
398.995,13.4377
399.996,13.4306
400.995,13.4237
401.995,13.4157
402.995,13.4076
403.995,13.4004
404.995,13.3931
405.995,13.3862
406.996,13.3803
407.995,13.3724
408.995,13.3666
409.995,13.3589
410.995,13.3517
411.995,13.3441
412.995,13.3384
413.995,13.3301
414.995,13.3232
415.995,13.3159
416.995,13.3085
417.995,13.3001
418.995,13.2921
419.995,13.2854
420.995,13.2778
421.996,13.2707
422.995,13.2622
423.995,13.255
424.995,13.2476
425.995,13.2396
426.995,13.2324
427.995,13.2263
428.995,13.2191
429.995,13.2097
430.995,13.2028
431.995,13.1949
432.995,13.1864
433.995,13.1784
434.995,13.1716
435.995,13.1625
436.995,13.1544
437.995,13.1479
438.995,13.1405
439.995,13.1313
440.995,13.1236
441.995,13.115
442.995,13.1067
443.995,13.0997
444.995,13.0918
445.995,13.0832
446.995,13.0761
447.995,13.0674
448.995,13.0605
449.995,13.0529
450.996,13.0449
451.995,13.0375
452.995,13.0289
453.995,13.0226
454.995,13.0148
455.995,13.0077
456.995,13.0003
457.995,12.9924
458.995,12.9854
459.995,12.9772
460.995,12.9697
461.996,12.9625
462.995,12.9548
463.995,12.9484
464.995,12.9411
465.995,12.9338
466.995,12.9272
467.995,12.9198
468.996,12.9114
469.996,12.9047
470.995,12.8982
471.995,12.8919
472.995,12.8857
473.995,12.8784
474.995,12.8708
475.995,12.8651
476.995,12.8574
477.996,12.8497
478.995,12.8428
479.995,12.8359
480.996,12.8285
481.995,12.8225
482.995,12.8162
483.995,12.8091
484.995,12.8011
485.995,12.7939
486.996,12.7849
487.995,12.7788
488.995,12.7716
489.995,12.7642
490.995,12.7579
491.995,12.7495
492.995,12.743
493.995,12.7364
494.995,12.7297
495.995,12.7225
496.996,12.7134
497.995,12.7069
498.995,12.7004
499.995,12.6923
500.996,12.6843
501.995,12.679
502.995,12.6704
503.995,12.6624
504.995,12.6559
505.995,12.6482
506.995,12.6397
507.995,12.6324
508.995,12.6263
509.995,12.6178
510.995,12.6104
511.995,12.6022
512.995,12.5946
513.995,12.5867
514.995,12.5787
515.995,12.5704
516.995,12.5619
517.995,12.5552
518.995,12.5472
519.995,12.5397
520.995,12.5318
521.995,12.523
522.995,12.5158
523.995,12.508
524.995,12.4999
525.995,12.4921
526.996,12.4839
527.995,12.4752
528.995,12.4678
529.995,12.46
530.995,12.4524
531.995,12.4451
532.995,12.4369
533.995,12.4294
534.996,12.4217
535.996,12.4133
536.995,12.4069
537.995,12.3995
538.995,12.3936
539.996,12.387
540.995,12.3794
541.995,12.373
542.995,12.366
543.995,12.3594
544.995,12.3524
545.995,12.3455
546.995,12.3384
547.995,12.3325
548.995,12.325
549.995,12.3194
550.995,12.311
551.995,12.3044
552.996,12.2978
553.996,12.2909
554.995,12.2847
555.995,12.2772
556.995,12.2697
557.995,12.2634
558.995,12.256
559.996,12.2497
560.995,12.244
561.996,12.2375
562.995,12.2304
563.995,12.2236
564.995,12.2168
565.995,12.2072
566.995,12.1868
567.995,12.1893
568.995,12.1887
569.995,12.1846
570.995,12.1789
571.995,12.1744
572.995,12.1686
573.995,12.1617
574.995,12.1552
575.995,12.1484
576.995,12.1428
577.995,12.1361
578.996,12.1295
579.996,12.1215
580.995,12.1131
581.995,12.1056
582.995,12.0977
583.995,12.0898
584.995,12.0816
585.995,12.0739
586.995,12.0674
587.995,12.0584
588.995,12.0527
589.996,12.0473
590.995,12.0401
591.996,12.0331
592.995,12.0267
593.995,12.0197
594.995,12.0137
595.995,12.0052
596.995,11.9981
597.995,11.9928
598.995,11.9878
599.995,11.9816
600.995,11.9749
601.995,11.9707
602.995,11.9636
603.996,11.958
604.995,11.9513
605.995,11.9439
606.995,11.9372
607.995,11.9302
608.995,11.924
609.996,11.9172
610.995,11.9099
611.996,11.9031
612.995,11.8965
613.996,11.8899
614.995,11.8826
615.995,11.8745
616.995,11.8664
617.995,11.8602
618.995,11.8523
619.995,11.8458
620.995,11.8372
621.995,11.8302
622.995,11.8241
623.995,11.8156
624.995,11.8089
625.995,11.8
626.995,11.7922
627.995,11.7858
628.995,11.7783
629.995,11.7719
630.995,11.7645
631.995,11.7583
632.995,11.7505
633.996,11.7442
634.995,11.7381
635.995,11.7312
636.995,11.7236
637.995,11.7168
638.996,11.7106
639.995,11.7042
640.995,11.697
641.995,11.6897
642.995,11.6847
643.996,11.6771
644.995,11.6713
645.995,11.6654
646.996,11.6579
647.995,11.6521
648.995,11.6455
649.995,11.6385
650.995,11.6327
651.995,11.626
652.995,11.619
653.995,11.6126
654.995,11.6068
655.995,11.5997
656.995,11.5931
657.995,11.588
658.995,11.5808
659.996,11.5741
660.996,11.567
661.995,11.5631
662.995,11.5573
663.995,11.5506
664.995,11.5439
665.995,11.5373
666.996,11.5314
667.995,11.5263
668.995,11.5195
669.995,11.5129
670.995,11.5061
671.996,11.498
672.995,11.4937
673.995,11.4862
674.995,11.4789
675.995,11.4741
676.995,11.4659
677.996,11.4585
678.995,11.4531
679.995,11.4454
680.996,11.4371
681.995,11.4312
682.995,11.4239
683.995,11.4185
684.995,11.4106
685.996,11.4026
686.995,11.3981
687.995,11.3908
688.995,11.3837
689.996,11.3775
690.995,11.3716
691.995,11.3644
692.995,11.3574
693.995,11.3525
694.995,11.3457
695.995,11.3387
696.995,11.3316
697.995,11.3257
698.996,11.3184
699.995,11.3123
700.995,11.3043
701.995,11.2976
702.995,11.2907
703.995,11.284
704.996,11.278
705.995,11.2709
706.995,11.2641
707.996,11.2578
708.995,11.252
709.995,11.2459
710.995,11.2401
711.996,11.2335
712.995,11.2272
713.995,11.2215
714.996,11.2157
715.995,11.2089
716.995,11.202
717.995,11.1969
718.995,11.1912
719.996,11.1857
720.995,11.178
721.995,11.1731
722.995,11.1671
723.995,11.1605
724.995,11.1545
725.995,11.1499
726.995,11.1442
727.996,11.1378
728.996,11.1326
729.995,11.1241
730.995,11.1186
731.995,11.1124
732.995,11.1067
733.995,11.0999
734.996,11.095
735.995,11.0862
736.995,11.0812
737.995,11.0757
738.995,11.0702
739.996,11.0647
740.995,11.0565
741.995,11.0498
742.995,11.0451
743.995,11.0386
744.996,11.032
745.995,11.0263
746.995,11.0213
747.995,11.0158
748.995,11.0088
749.995,11.0029
750.995,10.9971
751.995,10.9905
752.995,10.9846
753.995,10.9788
754.995,10.9728
755.995,10.9668
756.995,10.9607
757.995,10.9535
758.995,10.9479
759.995,10.9415
760.995,10.9356
761.995,10.9293
762.996,10.9237
763.996,10.9166
764.995,10.9103
765.995,10.9045
766.995,10.8992
767.995,10.8941
768.995,10.8868
769.995,10.882
770.996,10.8752
771.995,10.8688
772.995,10.8631
773.995,10.8574
774.996,10.8504
775.995,10.8439
776.995,10.8377
777.995,10.831
778.995,10.8261
779.995,10.821
780.995,10.8155
781.995,10.8079
782.995,10.8032
783.995,10.7962
784.995,10.7913
785.995,10.7836
786.995,10.7778
787.995,10.7717
788.995,10.7658
789.996,10.7588
790.996,10.7525
791.995,10.7462
792.995,10.739
793.995,10.7321
794.995,10.7275
795.995,10.7205
796.995,10.7139
797.996,10.7074
798.995,10.7017
799.995,10.6946
800.995,10.6861
801.995,10.6797
802.995,10.6699
803.996,10.6642
804.995,10.6592
805.995,10.652
806.995,10.6456
807.995,10.6403
808.995,10.6345
809.995,10.6267
810.995,10.6212
811.995,10.616
812.995,10.6099
813.994,10.6043
814.994,10.5983
815.995,10.5927
816.995,10.5875
817.994,10.5814
818.994,10.576
819.994,10.5702
820.994,10.5645
821.994,10.5579
822.994,10.5524
823.994,10.5465
824.994,10.5406
825.994,10.5352
826.994,10.5294
827.994,10.5237
828.994,10.5171
829.994,10.5121
830.994,10.5072
831.994,10.5014
832.994,10.4964
833.994,10.4915
834.994,10.4853
835.994,10.4806
836.994,10.4751
837.994,10.4704
838.994,10.4646
839.994,10.4597
840.994,10.4533
841.994,10.4481
842.994,10.4433
843.994,10.4368
844.994,10.4317
845.994,10.4281
846.994,10.4206
847.994,10.4146
848.994,10.4085
849.994,10.4027
850.994,10.4003
851.994,10.3941
852.994,10.3861
853.994,10.3797
854.994,10.3745
855.994,10.3689
856.994,10.3618
857.994,10.3562
858.994,10.3503
859.994,10.3451
860.994,10.3389
861.994,10.3328
862.994,10.3269
863.994,10.3209
864.994,10.3148
865.994,10.3085
866.994,10.3023
867.994,10.2966
868.994,10.2901
869.994,10.2835
870.994,10.2765
871.994,10.2712
872.994,10.263
873.994,10.2565
874.994,10.2515
875.994,10.2448
876.994,10.2387
877.994,10.2316
878.994,10.2268
879.994,10.2205
880.994,10.2145
881.994,10.2089
882.994,10.2042
883.994,10.1975
884.994,10.1925
885.994,10.1876
886.994,10.1815
887.994,10.1756
888.994,10.1715
889.994,10.1656
890.994,10.1601
891.994,10.1561
892.994,10.1498
893.994,10.1464
894.994,10.1408
895.994,10.1365
896.994,10.1317
897.994,10.1264
898.994,10.1207
899.994,10.1163
900.994,10.1101
901.994,10.1048
902.994,10.0996
903.994,10.0937
904.994,10.0875
905.994,10.0828
906.994,10.0761
907.994,10.0701
908.994,10.0652
909.994,10.0591
910.994,10.0542
911.994,10.0471
912.994,10.0417
913.994,10.0351
914.994,10.0291
915.994,10.0234
916.994,10.0197
917.994,10.0118
918.994,10.0057
919.995,9.9993
920.995,9.9919
921.996,9.9851
922.995,9.9806
923.995,9.9749
924.995,9.9751
925.995,9.9666
926.995,9.9589
927.995,9.9514
928.995,9.9489
929.995,9.942
930.995,9.9361
931.995,9.9299
932.995,9.9248
933.995,9.9184
934.996,9.9118
935.995,9.9066
936.995,9.9021
937.995,9.8956
938.995,9.8903
939.995,9.8846
940.996,9.8796
941.995,9.8745
942.995,9.8681
943.995,9.8635
944.995,9.8581
945.995,9.8527
946.995,9.8463
947.996,9.8417
948.995,9.8365
949.995,9.8298
950.995,9.8254
951.995,9.8201
952.996,9.8149
953.995,9.8088
954.995,9.8029
955.996,9.7978
956.995,9.7924
957.995,9.787
958.995,9.7813
959.996,9.7758
960.995,9.7702
961.995,9.7651
962.996,9.7591
963.995,9.7544
964.995,9.748
965.995,9.7419
966.995,9.7372
967.996,9.7314
968.995,9.7259
969.995,9.7208
970.995,9.7142
971.995,9.7081
972.995,9.703
973.995,9.6972
974.995,9.6925
975.995,9.6864
976.995,9.6816
