nm;arb.u
387.12;18.0
387.44;20.0
387.76;23.0
388.08;25.0
388.39;25.0
388.71;26.0
389.03;27.0
389.35;27.0
389.67;27.0
389.99;27.0
390.31;28.0
390.63;29.0
390.95;29.0
391.28;31.0
391.60;32.0
391.92;34.0
392.24;36.0
392.56;38.0
392.88;39.0
393.21;40.0
393.53;41.0
393.85;42.0
394.18;43.0
394.50;43.0
394.82;44.0
395.15;45.0
395.47;47.0
395.80;47.0
396.12;49.0
396.45;49.0
396.77;50.0
397.10;51.0
397.43;51.0
397.75;53.0
398.08;53.0
398.41;55.0
398.73;55.0
399.06;57.0
399.39;57.0
399.72;59.0
400.04;60.0
400.37;62.0
400.70;64.0
401.03;64.0
401.36;66.0
401.69;68.0
402.02;70.0
402.35;72.0
402.68;74.0
403.01;77.0
403.34;79.0
403.67;83.0
404.00;86.0
404.34;90.0
404.67;94.0
405.00;100.0
405.33;105.0
405.67;111.0
406.00;115.0
406.33;122.0
406.66;126.0
407.00;138.0
407.33;158.0
407.67;186.0
408.00;219.0
408.34;244.0
408.67;259.0
409.01;268.0
409.34;272.0
409.68;272.0
410.01;273.0
410.35;270.0
410.69;270.0
411.02;264.0
411.36;262.0
411.70;249.0
412.04;238.0
412.38;225.0
412.71;197.0
413.05;167.0
413.39;151.0
413.73;137.0
414.07;123.0
414.41;114.0
414.75;106.0
415.09;100.0
415.43;93.0
415.77;87.0
416.11;82.0
416.45;78.0
416.79;73.0
417.14;70.0
417.48;67.0
417.82;66.0
418.16;62.0
418.50;60.0
418.85;58.0
419.19;56.0
419.53;55.0
419.88;53.0
420.22;51.0
420.57;50.0
420.91;48.0
421.26;48.0
421.60;47.0
421.95;46.0
422.29;44.0
422.64;43.0
422.98;42.0
423.33;41.0
423.68;40.0
424.02;38.0
424.37;38.0
424.72;37.0
425.07;36.0
425.42;35.0
425.76;35.0
426.11;34.0
426.46;34.0
426.81;33.0
427.16;32.0
427.51;32.0
427.86;31.0
428.21;30.0
428.56;30.0
428.91;30.0
429.26;28.0
429.61;28.0
429.96;28.0
430.32;28.0
430.67;27.0
431.02;27.0
431.37;26.0
431.73;25.0
432.08;25.0
432.43;25.0
432.79;24.0
433.14;23.0
433.49;25.0
433.85;25.0
434.20;24.0
434.56;25.0
434.91;25.0
435.27;25.0
435.62;25.0
435.98;25.0
436.34;27.0
436.69;28.0
437.05;29.0
437.41;30.0
437.76;32.0
438.12;34.0
438.48;36.0
438.84;38.0
439.20;40.0
439.55;42.0
439.91;44.0
440.27;46.0
440.63;49.0
440.99;51.0
441.35;54.0
441.71;58.0
442.07;62.0
442.43;67.0
442.79;73.0
443.15;78.0
443.52;83.0
443.88;90.0
444.24;96.0
444.60;101.0
444.97;110.0
445.33;121.0
445.69;130.0
446.05;136.0
446.42;138.0
446.78;140.0
447.15;141.0
447.51;140.0
447.88;139.0
448.24;135.0
448.61;130.0
448.97;125.0
449.34;121.0
449.70;116.0
450.07;114.0
450.44;113.0
450.80;114.0
451.17;114.0
451.54;114.0
451.90;112.0
452.27;111.0
452.64;109.0
453.01;107.0
453.38;105.0
453.75;101.0
454.12;99.0
454.49;99.0
454.85;99.0
455.22;99.0
455.60;99.0
455.97;97.0
456.34;97.0
456.71;96.0
457.08;95.0
457.45;92.0
457.82;90.0
458.19;87.0
458.57;84.0
458.94;84.0
459.31;82.0
459.69;81.0
460.06;81.0
460.43;80.0
460.81;79.0
461.18;78.0
461.56;77.0
461.93;77.0
462.30;76.0
462.68;75.0
463.06;73.0
463.43;73.0
463.81;71.0
464.18;71.0
464.56;70.0
464.94;69.0
465.31;67.0
465.69;67.0
466.07;65.0
466.45;64.0
466.83;62.0
467.20;60.0
467.58;60.0
467.96;58.0
468.34;57.0
468.72;56.0
469.10;54.0
469.48;53.0
469.86;52.0
470.24;51.0
470.62;51.0
471.00;49.0
471.38;49.0
471.77;47.0
472.15;47.0
472.53;46.0
472.91;45.0
473.29;44.0
473.68;43.0
474.06;42.0
474.44;41.0
474.83;41.0
475.21;40.0
475.60;39.0
475.98;38.0
476.37;38.0
476.75;36.0
477.14;36.0
477.52;36.0
477.91;35.0
478.29;34.0
478.68;34.0
479.07;34.0
479.45;34.0
479.84;33.0
480.23;32.0
480.62;32.0
481.00;31.0
481.39;30.0
481.78;30.0
482.17;29.0
482.56;29.0
482.95;29.0
483.34;29.0
483.73;29.0
484.12;28.0
484.51;28.0
484.90;28.0
485.29;28.0
485.68;27.0
486.07;27.0
486.46;27.0
486.85;27.0
487.25;27.0
487.64;27.0
488.03;28.0
488.43;28.0
488.82;28.0
489.21;28.0
489.61;28.0
490.00;28.0
490.39;29.0
490.79;29.0
491.18;30.0
491.58;31.0
491.97;31.0
492.37;32.0
492.77;32.0
493.16;33.0
493.56;34.0
493.95;35.0
494.35;35.0
494.75;37.0
495.15;37.0
495.54;38.0
495.94;39.0
496.34;40.0
496.74;41.0
497.14;43.0
497.54;44.0
497.94;44.0
498.34;47.0
498.74;48.0
499.14;49.0
499.54;51.0
499.94;53.0
500.34;54.0
500.74;56.0
501.14;58.0
501.54;60.0
501.94;62.0
502.35;64.0
502.75;67.0
503.15;69.0
503.55;71.0
503.96;73.0
504.36;77.0
504.76;79.0
505.17;82.0
505.57;84.0
505.98;86.0
506.38;89.0
506.79;92.0
507.19;94.0
507.60;97.0
508.00;100.0
508.41;103.0
508.82;105.0
509.22;107.0
509.63;110.0
510.04;112.0
510.45;114.0
510.85;116.0
511.26;119.0
511.67;121.0
512.08;123.0
512.49;125.0
512.90;127.0
513.31;128.0
513.72;130.0
514.12;131.0
514.54;132.0
514.95;134.0
515.36;135.0
515.77;136.0
516.18;136.0
516.59;138.0
517.00;138.0
517.41;139.0
517.83;140.0
518.24;140.0
518.65;141.0
519.06;141.0
519.48;142.0
519.89;142.0
520.30;143.0
520.72;143.0
521.13;144.0
521.55;144.0
521.96;144.0
522.38;145.0
522.79;145.0
523.21;144.0
523.63;145.0
524.04;145.0
524.46;144.0
524.87;145.0
525.29;145.0
525.71;145.0
526.13;145.0
526.54;145.0
526.96;144.0
527.38;145.0
527.80;145.0
528.22;145.0
528.64;145.0
529.06;145.0
529.48;145.0
529.90;145.0
530.32;146.0
530.74;145.0
531.16;145.0
531.58;144.0
532.00;144.0
532.42;144.0
532.84;144.0
533.27;144.0
533.69;144.0
534.11;144.0
534.53;144.0
534.96;144.0
535.38;144.0
535.80;144.0
536.23;144.0
536.65;144.0
537.08;144.0
537.50;144.0
537.93;144.0
538.35;144.0
538.78;144.0
539.20;144.0
539.63;144.0
540.05;143.0
540.48;142.0
540.91;142.0
541.33;142.0
541.76;143.0
542.19;142.0
542.62;142.0
543.05;142.0
543.47;142.0
543.90;142.0
544.33;143.0
544.76;143.0
545.19;143.0
545.62;143.0
546.05;143.0
546.48;142.0
546.91;142.0
547.34;142.0
547.77;140.0
548.20;140.0
548.63;140.0
549.07;139.0
549.50;138.0
549.93;138.0
550.36;137.0
550.80;137.0
551.23;136.0
551.66;136.0
552.10;135.0
552.53;135.0
552.96;134.0
553.40;134.0
553.83;133.0
554.27;133.0
554.70;132.0
555.14;132.0
555.58;132.0
556.01;132.0
556.45;130.0
556.88;130.0
557.32;129.0
557.76;128.0
558.20;127.0
558.63;127.0
559.07;126.0
559.51;126.0
559.95;125.0
560.39;124.0
560.83;123.0
561.26;123.0
561.70;122.0
562.14;121.0
562.58;120.0
563.02;120.0
563.46;118.0
563.91;118.0
564.35;117.0
564.79;117.0
565.23;116.0
565.67;115.0
566.11;115.0
566.56;114.0
567.00;114.0
567.44;113.0
567.88;113.0
568.33;113.0
568.77;114.0
569.22;115.0
569.66;115.0
570.10;115.0
570.55;117.0
570.99;119.0
571.44;121.0
571.89;122.0
572.33;124.0
572.78;126.0
573.22;127.0
573.67;129.0
574.12;130.0
574.56;131.0
575.01;132.0
575.46;133.0
575.91;134.0
576.36;134.0
576.80;134.0
577.25;134.0
577.70;135.0
578.15;135.0
578.60;134.0
579.05;134.0
579.50;134.0
579.95;134.0
580.40;132.0
580.85;132.0
581.30;132.0
581.75;131.0
582.21;131.0
582.66;129.0
583.11;129.0
583.56;127.0
584.02;127.0
584.47;126.0
584.92;126.0
585.37;125.0
585.83;124.0
586.28;123.0
586.74;122.0
587.19;122.0
587.65;120.0
588.10;120.0
588.56;118.0
589.01;118.0
589.47;117.0
589.92;115.0
590.38;114.0
590.84;114.0
591.29;113.0
591.75;111.0
592.21;110.0
592.67;108.0
593.12;108.0
593.58;107.0
594.04;106.0
594.50;104.0
594.96;104.0
595.42;103.0
595.88;102.0
596.34;100.0
596.80;98.0
597.26;98.0
597.72;96.0
598.18;96.0
598.64;94.0
599.10;92.0
599.56;92.0
600.03;91.0
600.49;89.0
600.95;88.0
601.41;87.0
601.88;85.0
602.34;84.0
602.80;83.0
603.27;81.0
603.73;81.0
604.20;79.0
604.66;79.0
605.12;77.0
605.59;76.0
606.06;75.0
606.52;73.0
606.99;72.0
607.45;71.0
607.92;70.0
608.39;68.0
608.85;68.0
609.32;66.0
609.79;66.0
610.26;64.0
610.72;62.0
611.19;62.0
611.66;60.0
612.13;60.0
612.60;58.0
613.07;57.0
613.54;57.0
614.01;55.0
614.48;53.0
614.95;53.0
615.42;51.0
615.89;51.0
616.36;50.0
616.83;48.0
617.30;47.0
617.78;47.0
618.25;46.0
618.72;45.0
619.19;44.0
619.67;44.0
620.14;43.0
620.61;43.0
621.09;41.0
621.56;41.0
622.04;42.0
622.51;41.0
622.98;40.0
623.46;40.0
623.94;40.0
624.41;38.0
624.89;38.0
625.36;37.0
625.84;37.0
626.32;36.0
626.79;36.0
627.27;35.0
627.75;35.0
628.23;34.0
628.70;33.0
629.18;33.0
629.66;32.0
630.14;31.0
630.62;31.0
631.10;31.0
631.58;31.0
632.06;30.0
632.54;29.0
633.02;29.0
633.50;29.0
633.98;28.0
634.46;27.0
634.94;27.0
635.42;27.0
635.91;27.0
636.39;27.0
636.87;27.0
637.35;27.0
637.84;27.0
638.32;27.0
638.80;27.0
639.29;27.0
639.77;27.0
640.26;27.0
640.74;27.0
641.23;27.0
641.71;27.0
642.20;27.0
642.68;28.0
643.17;28.0
643.65;29.0
644.14;29.0
644.63;29.0
645.12;29.0
645.60;29.0
646.09;31.0
646.58;31.0
647.07;31.0
647.55;31.0
648.04;32.0
648.53;33.0
649.02;33.0
649.51;33.0
650.00;34.0
650.49;34.0
650.98;35.0
651.47;35.0
651.96;35.0
652.45;36.0
652.94;36.0
653.44;36.0
653.93;37.0
654.42;37.0
654.91;37.0
655.40;37.0
655.90;38.0
656.39;38.0
656.88;38.0
657.38;39.0
657.87;39.0
658.37;39.0
658.86;39.0
659.35;40.0
659.85;40.0
660.34;40.0
660.84;40.0
661.34;40.0
661.83;40.0
662.33;40.0
662.82;41.0
663.32;42.0
663.82;42.0
664.32;42.0
664.81;42.0
665.31;42.0
665.81;43.0
666.31;44.0
666.81;44.0
667.31;44.0
667.80;44.0
668.30;44.0
668.80;44.0
669.30;44.0
669.80;45.0
670.30;46.0
670.81;46.0
671.31;46.0
671.81;46.0
672.31;46.0
672.81;46.0
673.31;48.0
673.82;48.0
674.32;48.0
674.82;48.0
675.32;48.0
675.83;48.0
676.33;48.0
676.84;48.0
677.34;49.0
677.84;50.0
678.35;50.0
678.85;50.0
679.36;50.0
679.86;50.0
680.37;50.0
680.88;50.0
681.38;50.0
681.89;50.0
682.40;50.0
682.90;50.0
683.41;50.0
683.92;50.0
684.43;50.0
684.93;50.0
685.44;50.0
685.95;50.0
686.46;50.0
686.97;50.0
687.48;50.0
687.99;50.0
688.50;50.0
689.01;50.0
689.52;50.0
690.03;50.0
690.54;50.0
691.05;50.0
691.57;50.0
692.08;50.0
692.59;50.0
693.10;50.0
693.61;50.0
694.13;50.0
694.64;50.0
695.15;50.0
695.67;50.0
696.18;50.0
696.70;50.0
697.21;50.0
697.73;49.0
698.24;49.0
698.76;48.0
699.27;48.0
699.79;48.0
700.30;48.0
700.82;48.0
701.34;48.0
701.85;48.0
702.37;48.0
702.89;48.0
703.41;48.0
703.92;48.0
704.44;48.0
704.96;47.0
705.48;48.0
706.00;46.0
706.52;46.0
707.04;46.0
707.56;46.0
708.08;46.0
708.60;46.0
709.12;46.0
709.64;44.0
710.16;44.0
710.68;44.0
711.20;44.0
711.72;44.0
712.25;44.0
712.77;44.0
713.29;44.0
713.81;44.0
714.34;44.0
714.86;42.0
715.39;43.0
715.91;42.0
716.43;42.0
716.96;42.0
717.48;41.0
718.01;41.0
718.53;41.0
719.06;41.0
719.58;41.0
720.11;41.0
720.64;40.0
721.16;39.0
721.69;38.0
