nm;arb.u
371.21;0.0
371.67;0.0
372.12;0.0
372.58;0.0
373.03;0.0
373.49;0.0
373.94;0.0
374.40;0.0
374.85;0.0
375.31;0.0
375.76;0.0
376.22;0.0
376.67;0.0
377.12;0.0
377.58;0.0
378.03;0.0
378.48;0.0
378.94;0.0
379.39;0.0
379.84;0.0
380.30;0.0
380.75;0.0
381.20;0.0
381.65;0.0
382.11;1.0
382.56;0.0
383.01;0.0
383.46;0.0
383.91;0.0
384.36;0.0
384.82;0.0
385.27;0.0
385.72;0.0
386.17;0.0
386.62;0.0
387.07;0.0
387.52;0.0
387.97;0.0
388.42;0.0
388.87;1.0
389.32;1.0
389.77;1.0
390.22;1.0
390.67;0.0
391.12;0.0
391.57;0.0
392.02;0.0
392.47;0.0
392.92;0.0
393.37;1.0
393.82;1.0
394.27;1.0
394.72;1.0
395.17;0.0
395.61;0.0
396.06;0.0
396.51;0.0
396.96;0.0
397.41;0.0
397.85;0.0
398.30;0.0
398.75;0.0
399.20;0.0
399.64;0.0
400.09;0.0
400.54;0.0
400.98;0.0
401.43;0.0
401.88;0.0
402.32;0.0
402.77;0.0
403.22;0.0
403.66;0.0
404.11;0.0
404.55;0.0
405.00;0.0
405.45;0.0
405.89;0.0
406.34;0.0
406.78;0.0
407.23;0.0
407.67;0.0
408.12;0.0
408.56;0.0
409.01;0.0
409.45;0.0
409.89;0.0
410.34;0.0
410.78;0.0
411.23;0.0
411.67;0.0
412.11;0.0
412.56;0.0
413.00;0.0
413.44;0.0
413.89;0.0
414.33;0.0
414.77;0.0
415.21;0.0
415.66;0.0
416.10;0.0
416.54;0.0
416.98;0.0
417.43;0.0
417.87;0.0
418.31;0.0
418.75;0.0
419.19;0.0
419.63;0.0
420.07;0.0
420.52;0.0
420.96;0.0
421.40;0.0
421.84;0.0
422.28;0.0
422.72;0.0
423.16;0.0
423.60;0.0
424.04;0.0
424.48;0.0
424.92;1.0
425.36;1.0
425.80;1.0
426.24;0.0
426.68;0.0
427.12;0.0
427.56;0.0
427.99;0.0
428.43;0.0
428.87;0.0
429.31;1.0
429.75;0.0
430.19;0.0
430.63;0.0
431.06;0.0
431.50;0.0
431.94;0.0
432.38;0.0
432.81;0.0
433.25;0.0
433.69;0.0
434.13;0.0
434.56;0.0
435.00;0.0
435.44;0.0
435.87;0.0
436.31;0.0
436.74;0.0
437.18;1.0
437.62;2.0
438.05;1.0
438.49;0.0
438.92;0.0
439.36;1.0
439.80;2.0
440.23;2.0
440.67;0.0
441.10;1.0
441.54;1.0
441.97;1.0
442.40;1.0
442.84;0.0
443.27;0.0
443.71;0.0
444.14;0.0
444.58;0.0
445.01;0.0
445.44;1.0
445.88;1.0
446.31;0.0
446.74;1.0
447.18;0.0
447.61;0.0
448.04;0.0
448.47;1.0
448.91;1.0
449.34;1.0
449.77;1.0
450.20;1.0
450.64;1.0
451.07;1.0
451.50;0.0
451.93;0.0
452.36;0.0
452.80;0.0
453.23;0.0
453.66;0.0
454.09;0.0
454.52;0.0
454.95;0.0
455.38;0.0
455.81;0.0
456.24;0.0
456.67;0.0
457.10;0.0
457.53;0.0
457.96;0.0
458.39;0.0
458.82;0.0
459.25;0.0
459.68;0.0
460.11;0.0
460.54;1.0
460.97;1.0
461.40;0.0
461.83;0.0
462.25;0.0
462.68;0.0
463.11;0.0
463.54;0.0
463.97;0.0
464.40;0.0
464.82;0.0
465.25;0.0
465.68;0.0
466.11;0.0
466.53;0.0
466.96;0.0
467.39;0.0
467.81;0.0
468.24;0.0
468.67;0.0
469.09;0.0
469.52;0.0
469.95;0.0
470.37;0.0
470.80;0.0
471.22;0.0
471.65;0.0
472.08;0.0
472.50;0.0
472.93;0.0
473.35;0.0
473.78;0.0
474.20;0.0
474.63;0.0
475.05;0.0
475.48;0.0
475.90;0.0
476.32;0.0
476.75;0.0
477.17;0.0
477.60;0.0
478.02;0.0
478.44;0.0
478.87;0.0
479.29;0.0
479.71;0.0
480.14;0.0
480.56;0.0
480.98;0.0
481.41;0.0
481.83;0.0
482.25;2.0
482.67;0.0
483.10;0.0
483.52;0.0
483.94;0.0
484.36;0.0
484.78;0.0
485.20;0.0
485.63;0.0
486.05;0.0
486.47;0.0
486.89;0.0
487.31;0.0
487.73;0.0
488.15;0.0
488.57;0.0
488.99;0.0
489.41;1.0
489.83;1.0
490.25;1.0
490.67;2.0
491.09;2.0
491.51;2.0
491.93;1.0
492.35;2.0
492.77;2.0
493.19;2.0
493.61;2.0
494.03;2.0
494.45;2.0
494.86;2.0
495.28;2.0
495.70;2.0
496.12;2.0
496.54;2.0
496.95;2.0
497.37;2.0
497.79;2.0
498.21;2.0
498.63;3.0
499.04;2.0
499.46;2.0
499.88;2.0
500.29;3.0
500.71;3.0
501.13;4.0
501.54;4.0
501.96;4.0
502.38;4.0
502.79;4.0
503.21;4.0
503.62;4.0
504.04;4.0
504.45;4.0
504.87;4.0
505.29;4.0
505.70;4.0
506.12;4.0
506.53;4.0
506.95;4.0
507.36;4.0
507.77;4.0
508.19;4.0
508.60;4.0
509.02;4.0
509.43;4.0
509.85;4.0
510.26;4.0
510.67;4.0
511.09;4.0
511.50;4.0
511.91;4.0
512.33;5.0
512.74;5.0
513.15;5.0
513.56;6.0
513.98;6.0
514.39;5.0
514.80;6.0
515.21;6.0
515.63;6.0
516.04;7.0
516.45;7.0
516.86;8.0
517.27;8.0
517.68;9.0
518.09;10.0
518.51;10.0
518.92;11.0
519.33;12.0
519.74;13.0
520.15;14.0
520.56;14.0
520.97;15.0
521.38;16.0
521.79;18.0
522.20;19.0
522.61;21.0
523.02;21.0
523.43;22.0
523.84;24.0
524.25;25.0
524.66;27.0
525.07;29.0
525.48;30.0
525.88;31.0
526.29;33.0
526.70;35.0
527.11;37.0
527.52;38.0
527.93;40.0
528.33;40.0
528.74;58.0
529.15;100.0
529.56;126.0
529.96;138.0
530.37;139.0
530.78;135.0
531.19;136.0
531.59;134.0
532.00;127.0
532.41;113.0
532.81;96.0
533.22;85.0
533.63;84.0
534.03;86.0
534.44;88.0
534.84;90.0
535.25;91.0
535.66;92.0
536.06;94.0
536.47;97.0
536.87;100.0
537.28;102.0
537.68;104.0
538.09;107.0
538.49;109.0
538.90;112.0
539.30;113.0
539.70;116.0
540.11;116.0
540.51;118.0
540.92;120.0
541.32;121.0
541.72;123.0
542.13;123.0
542.53;124.0
542.93;125.0
543.34;127.0
543.74;127.0
544.14;129.0
544.55;129.0
544.95;129.0
545.35;131.0
545.75;131.0
546.16;131.0
546.56;133.0
546.96;133.0
547.36;133.0
547.76;133.0
548.17;134.0
548.57;135.0
548.97;135.0
549.37;135.0
549.77;135.0
550.17;135.0
550.57;135.0
550.97;135.0
551.37;135.0
551.77;135.0
552.18;135.0
552.58;135.0
552.98;135.0
553.38;134.0
553.77;134.0
554.17;133.0
554.57;133.0
554.97;133.0
555.37;133.0
555.77;132.0
556.17;131.0
556.57;131.0
556.97;131.0
557.37;131.0
557.77;129.0
558.16;129.0
558.56;128.0
558.96;128.0
559.36;127.0
559.76;127.0
560.15;126.0
560.55;125.0
560.95;124.0
561.35;124.0
561.74;122.0
562.14;122.0
562.54;120.0
562.93;119.0
563.33;118.0
563.73;116.0
564.12;115.0
564.52;113.0
564.92;111.0
565.31;110.0
565.71;109.0
566.10;107.0
566.50;105.0
566.89;103.0
567.29;102.0
567.69;100.0
568.08;99.0
568.48;97.0
568.87;95.0
569.26;93.0
569.66;93.0
570.05;91.0
570.45;89.0
570.84;87.0
571.24;87.0
571.63;86.0
572.02;86.0
572.42;84.0
572.81;84.0
573.20;82.0
573.60;82.0
573.99;83.0
574.38;81.0
574.78;81.0
575.17;81.0
575.56;80.0
575.95;80.0
576.35;80.0
576.74;79.0
577.13;78.0
577.52;78.0
577.92;77.0
578.31;76.0
578.70;75.0
579.09;74.0
579.48;73.0
579.87;72.0
580.26;70.0
580.65;69.0
581.05;68.0
581.44;67.0
581.83;65.0
582.22;64.0
582.61;62.0
583.00;61.0
583.39;59.0
583.78;58.0
584.17;57.0
584.56;55.0
584.95;54.0
585.34;52.0
585.72;51.0
586.11;50.0
586.50;48.0
586.89;47.0
587.28;46.0
587.67;44.0
588.06;44.0
588.45;43.0
588.83;41.0
589.22;40.0
589.61;39.0
590.00;39.0
590.39;37.0
590.77;37.0
591.16;37.0
591.55;35.0
591.93;35.0
592.32;33.0
592.71;33.0
593.10;32.0
593.48;31.0
593.87;30.0
594.25;29.0
594.64;29.0
595.03;27.0
595.41;27.0
595.80;27.0
596.18;27.0
596.57;25.0
596.96;25.0
597.34;25.0
597.73;25.0
598.11;23.0
598.50;23.0
598.88;23.0
599.27;23.0
599.65;21.0
600.03;21.0
600.42;20.0
600.80;20.0
601.19;19.0
601.57;19.0
601.95;19.0
602.34;19.0
602.72;18.0
603.11;17.0
603.49;17.0
603.87;17.0
604.25;16.0
604.64;15.0
605.02;15.0
605.40;15.0
605.79;15.0
606.17;14.0
606.55;14.0
606.93;14.0
607.31;13.0
607.70;12.0
608.08;13.0
608.46;12.0
608.84;12.0
609.22;12.0
609.60;12.0
609.98;11.0
610.36;11.0
610.75;11.0
611.13;10.0
611.51;10.0
611.89;9.0
612.27;9.0
612.65;8.0
613.03;8.0
613.41;8.0
613.79;7.0
614.17;8.0
614.55;7.0
614.93;7.0
615.30;7.0
615.68;6.0
616.06;6.0
616.44;6.0
616.82;6.0
617.20;6.0
617.58;6.0
617.96;6.0
618.33;6.0
618.71;5.0
619.09;4.0
619.47;4.0
619.84;5.0
620.22;5.0
620.60;6.0
620.98;5.0
621.35;4.0
621.73;4.0
622.11;4.0
622.48;4.0
622.86;4.0
623.24;4.0
623.61;4.0
623.99;4.0
624.37;4.0
624.74;3.0
625.12;4.0
625.49;3.0
625.87;3.0
626.24;3.0
626.62;3.0
626.99;4.0
627.37;4.0
627.74;3.0
628.12;4.0
628.49;3.0
628.87;2.0
629.24;2.0
629.62;2.0
629.99;2.0
630.37;2.0
630.74;2.0
631.11;2.0
631.49;2.0
631.86;2.0
632.23;2.0
632.61;2.0
632.98;2.0
633.35;2.0
633.73;2.0
634.10;2.0
634.47;2.0
634.84;2.0
635.22;3.0
635.59;3.0
635.96;3.0
636.33;2.0
636.70;2.0
637.07;2.0
637.45;4.0
637.82;4.0
638.19;4.0
638.56;4.0
638.93;4.0
639.30;4.0
639.67;4.0
640.04;4.0
640.41;4.0
640.78;4.0
641.15;4.0
641.52;4.0
641.89;4.0
642.26;4.0
642.63;4.0
643.00;4.0
643.37;4.0
643.74;4.0
644.11;4.0
644.48;4.0
644.85;4.0
645.22;4.0
645.59;4.0
645.95;4.0
646.32;5.0
646.69;4.0
647.06;5.0
647.43;5.0
647.80;6.0
648.16;6.0
648.53;6.0
648.90;6.0
649.27;6.0
649.63;6.0
650.00;7.0
650.37;7.0
650.73;7.0
651.10;7.0
651.47;7.0
651.83;7.0
652.20;7.0
652.57;7.0
652.93;8.0
653.30;8.0
653.66;8.0
654.03;9.0
654.39;8.0
654.76;9.0
655.13;9.0
655.49;10.0
655.86;9.0
656.22;10.0
656.59;10.0
656.95;10.0
657.31;11.0
657.68;11.0
658.04;11.0
658.41;11.0
658.77;11.0
659.13;12.0
659.50;12.0
659.86;12.0
660.23;12.0
660.59;12.0
660.95;12.0
661.31;12.0
661.68;12.0
662.04;12.0
662.40;12.0
662.77;12.0
663.13;12.0
663.49;12.0
663.85;13.0
664.21;12.0
664.58;13.0
664.94;13.0
665.30;13.0
665.66;14.0
666.02;13.0
666.38;13.0
666.74;13.0
667.11;14.0
667.47;14.0
667.83;14.0
668.19;14.0
668.55;13.0
668.91;14.0
669.27;13.0
669.63;14.0
669.99;14.0
670.35;14.0
670.71;13.0
671.07;13.0
671.43;14.0
671.79;13.0
672.15;14.0
672.50;14.0
672.86;14.0
673.22;15.0
673.58;15.0
673.94;14.0
674.30;14.0
674.66;14.0
675.01;14.0
675.37;14.0
675.73;14.0
676.09;14.0
676.44;14.0
676.80;14.0
677.16;14.0
677.52;14.0
677.87;14.0
678.23;14.0
678.59;14.0
678.94;14.0
679.30;14.0
679.66;14.0
680.01;14.0
680.37;14.0
680.73;14.0
681.08;14.0
681.44;14.0
681.79;14.0
682.15;14.0
682.50;14.0
682.86;14.0
683.21;14.0
683.57;14.0
683.92;14.0
684.28;13.0
684.63;13.0
684.99;13.0
685.34;13.0
685.70;14.0
686.05;14.0
686.40;14.0
686.76;14.0
687.11;14.0
687.46;14.0
687.82;13.0
688.17;13.0
688.52;13.0
688.88;13.0
689.23;13.0
689.58;13.0
689.94;13.0
690.29;12.0
690.64;12.0
690.99;11.0
