nm;arb.u
373.20;0.0
373.62;0.0
374.05;0.0
374.48;0.0
374.90;0.0
375.33;0.0
375.75;0.0
376.18;0.0
376.60;0.0
377.03;0.0
377.46;0.0
377.88;0.0
378.31;0.0
378.73;0.0
379.16;0.0
379.58;0.0
380.01;0.0
380.43;0.0
380.86;0.0
381.28;0.0
381.71;0.0
382.13;0.0
382.56;0.0
382.98;0.0
383.41;0.0
383.83;0.0
384.26;0.0
384.68;0.0
385.11;0.0
385.53;0.0
385.95;0.0
386.38;0.0
386.80;0.0
387.23;0.0
387.65;0.0
388.08;0.0
388.50;0.0
388.92;0.0
389.35;0.0
389.77;0.0
390.20;0.0
390.62;0.0
391.04;0.0
391.47;0.0
391.89;0.0
392.32;0.0
392.74;0.0
393.16;0.0
393.59;0.0
394.01;0.0
394.43;0.0
394.86;0.0
395.28;0.0
395.70;0.0
396.13;0.0
396.55;0.0
396.97;0.0
397.40;0.0
397.82;0.0
398.24;0.0
398.66;0.0
399.09;0.0
399.51;0.0
399.93;0.0
400.35;0.0
400.78;0.0
401.20;0.0
401.62;0.0
402.04;0.0
402.47;0.0
402.89;0.0
403.31;0.0
403.73;0.0
404.16;0.0
404.58;0.0
405.00;0.0
405.42;0.0
405.84;0.0
406.27;0.0
406.69;0.0
407.11;0.0
407.53;0.0
407.95;0.0
408.37;0.0
408.80;0.0
409.22;0.0
409.64;0.0
410.06;0.0
410.48;0.0
410.90;0.0
411.32;0.0
411.75;0.0
412.17;0.0
412.59;0.0
413.01;0.0
413.43;0.0
413.85;0.0
414.27;0.0
414.69;0.0
415.11;0.0
415.53;0.0
415.95;0.0
416.37;0.0
416.79;0.0
417.22;0.0
417.64;0.0
418.06;0.0
418.48;0.0
418.90;0.0
419.32;0.0
419.74;0.0
420.16;0.0
420.58;0.0
421.00;0.0
421.42;0.0
421.84;0.0
422.26;0.0
422.68;0.0
423.10;0.0
423.52;0.0
423.94;0.0
424.35;0.0
424.77;0.0
425.19;0.0
425.61;0.0
426.03;0.0
426.45;0.0
426.87;0.0
427.29;0.0
427.71;0.0
428.13;0.0
428.55;0.0
428.97;0.0
429.39;0.0
429.80;0.0
430.22;0.0
430.64;0.0
431.06;0.0
431.48;0.0
431.90;0.0
432.32;0.0
432.73;0.0
433.15;0.0
433.57;0.0
433.99;0.0
434.41;0.0
434.83;0.0
435.24;0.0
435.66;0.0
436.08;0.0
436.50;0.0
436.92;0.0
437.33;0.0
437.75;0.0
438.17;0.0
438.59;0.0
439.00;0.0
439.42;0.0
439.84;0.0
440.26;0.0
440.67;0.0
441.09;0.0
441.51;0.0
441.93;0.0
442.34;0.0
442.76;0.0
443.18;0.0
443.59;0.0
444.01;0.0
444.43;0.0
444.85;0.0
445.26;0.0
445.68;0.0
446.10;0.0
446.51;0.0
446.93;0.0
447.35;0.0
447.76;0.0
448.18;0.0
448.60;0.0
449.01;0.0
449.43;0.0
449.84;0.0
450.26;0.0
450.68;0.0
451.09;0.0
451.51;0.0
451.92;0.0
452.34;0.0
452.76;0.0
453.17;0.0
453.59;0.0
454.00;0.0
454.42;0.0
454.83;0.0
455.25;0.0
455.67;0.0
456.08;0.0
456.50;0.0
456.91;0.0
457.33;0.0
457.74;0.0
458.16;0.0
458.57;0.0
458.99;0.0
459.40;0.0
459.82;0.0
460.23;0.0
460.65;0.0
461.06;0.0
461.48;0.0
461.89;0.0
462.31;0.0
462.72;0.0
463.13;0.0
463.55;0.0
463.96;0.0
464.38;0.0
464.79;0.0
465.21;0.0
465.62;0.0
466.03;0.0
466.45;0.0
466.86;0.0
467.28;0.0
467.69;0.0
468.10;0.0
468.52;0.0
468.93;0.0
469.35;0.0
469.76;0.0
470.17;0.0
470.59;0.0
471.00;0.0
471.41;0.0
471.83;0.0
472.24;0.0
472.65;1.0
473.07;1.0
473.48;1.0
473.89;1.0
474.31;1.0
474.72;0.0
475.13;0.0
475.54;1.0
475.96;1.0
476.37;0.0
476.78;0.0
477.20;0.0
477.61;0.0
478.02;1.0
478.43;1.0
478.85;1.0
479.26;1.0
479.67;1.0
480.08;1.0
480.49;1.0
480.91;1.0
481.32;1.0
481.73;1.0
482.14;1.0
482.55;1.0
482.97;0.0
483.38;0.0
483.79;1.0
484.20;1.0
484.61;1.0
485.03;1.0
485.44;1.0
485.85;1.0
486.26;2.0
486.67;1.0
487.08;2.0
487.49;2.0
487.91;2.0
488.32;2.0
488.73;2.0
489.14;2.0
489.55;2.0
489.96;2.0
490.37;2.0
490.78;2.0
491.19;2.0
491.60;2.0
492.01;2.0
492.43;2.0
492.84;2.0
493.25;2.0
493.66;2.0
494.07;2.0
494.48;2.0
494.89;2.0
495.30;3.0
495.71;3.0
496.12;3.0
496.53;3.0
496.94;3.0
497.35;3.0
497.76;3.0
498.17;3.0
498.58;3.0
498.99;4.0
499.40;4.0
499.81;4.0
500.22;4.0
500.63;4.0
501.04;4.0
501.45;4.0
501.86;4.0
502.26;4.0
502.67;4.0
503.08;4.0
503.49;4.0
503.90;4.0
504.31;4.0
504.72;4.0
505.13;4.0
505.54;4.0
505.95;4.0
506.35;4.0
506.76;4.0
507.17;4.0
507.58;4.0
507.99;4.0
508.40;4.0
508.81;5.0
509.21;5.0
509.62;4.0
510.03;5.0
510.44;5.0
510.85;5.0
511.26;5.0
511.66;5.0
512.07;7.0
512.48;7.0
512.89;7.0
513.30;8.0
513.70;8.0
514.11;8.0
514.52;9.0
514.93;9.0
515.33;9.0
515.74;10.0
516.15;10.0
516.56;12.0
516.96;12.0
517.37;12.0
517.78;14.0
518.19;14.0
518.59;15.0
519.00;15.0
519.41;16.0
519.81;18.0
520.22;18.0
520.63;19.0
521.04;20.0
521.44;21.0
521.85;23.0
522.26;24.0
522.66;25.0
523.07;28.0
523.48;34.0
523.88;40.0
524.29;43.0
524.69;45.0
525.10;45.0
525.51;44.0
525.91;42.0
526.32;42.0
526.73;42.0
527.13;42.0
527.54;42.0
527.94;42.0
528.35;42.0
528.76;43.0
529.16;44.0
529.57;45.0
529.97;46.0
530.38;47.0
530.78;47.0
531.19;49.0
531.59;50.0
532.00;51.0
532.41;53.0
532.81;54.0
533.22;54.0
533.62;55.0
534.03;57.0
534.43;58.0
534.84;58.0
535.24;60.0
535.65;60.0
536.05;61.0
536.46;62.0
536.86;64.0
537.27;64.0
537.67;64.0
538.07;65.0
538.48;65.0
538.88;67.0
539.29;67.0
539.69;68.0
540.10;68.0
540.50;70.0
540.90;70.0
541.31;70.0
541.71;71.0
542.12;71.0
542.52;71.0
542.92;72.0
543.33;73.0
543.73;73.0
544.14;73.0
544.54;73.0
544.94;73.0
545.35;74.0
545.75;73.0
546.15;73.0
546.56;73.0
546.96;73.0
547.36;73.0
547.77;73.0
548.17;73.0
548.57;73.0
548.98;73.0
549.38;73.0
549.78;73.0
550.19;72.0
550.59;72.0
550.99;72.0
551.39;71.0
551.80;71.0
552.20;71.0
552.60;71.0
553.01;70.0
553.41;69.0
553.81;69.0
554.21;69.0
554.62;69.0
555.02;68.0
555.42;68.0
555.82;67.0
556.22;67.0
556.63;66.0
557.03;65.0
557.43;65.0
557.83;64.0
558.23;64.0
558.64;63.0
559.04;63.0
559.44;61.0
559.84;61.0
560.24;60.0
560.64;60.0
561.05;59.0
561.45;59.0
561.85;57.0
562.25;57.0
562.65;57.0
563.05;56.0
563.45;56.0
563.85;56.0
564.26;55.0
564.66;55.0
565.06;54.0
565.46;54.0
565.86;54.0
566.26;54.0
566.66;53.0
567.06;54.0
567.46;53.0
567.86;53.0
568.26;53.0
568.66;53.0
569.06;53.0
569.46;53.0
569.86;53.0
570.26;53.0
570.66;53.0
571.06;53.0
571.46;54.0
571.86;53.0
572.26;52.0
572.66;53.0
573.06;52.0
573.46;52.0
573.86;52.0
574.26;52.0
574.66;51.0
575.06;51.0
575.46;51.0
575.86;50.0
576.26;50.0
576.66;50.0
577.06;49.0
577.46;48.0
577.86;47.0
578.26;47.0
578.66;46.0
579.06;46.0
579.45;46.0
579.85;45.0
580.25;45.0
580.65;44.0
581.05;43.0
581.45;43.0
581.85;42.0
582.25;42.0
582.64;41.0
583.04;41.0
583.44;41.0
583.84;40.0
584.24;39.0
584.64;39.0
585.03;38.0
585.43;38.0
585.83;38.0
586.23;38.0
586.63;38.0
587.03;37.0
587.42;37.0
587.82;37.0
588.22;36.0
588.62;35.0
589.01;35.0
589.41;35.0
589.81;35.0
590.21;34.0
590.60;34.0
591.00;34.0
591.40;33.0
591.80;33.0
592.19;32.0
592.59;32.0
592.99;32.0
593.39;31.0
593.78;30.0
594.18;30.0
594.58;30.0
594.97;30.0
595.37;29.0
595.77;29.0
596.16;28.0
596.56;27.0
596.96;27.0
597.35;27.0
597.75;27.0
598.15;26.0
598.54;25.0
598.94;25.0
599.34;25.0
599.73;25.0
600.13;25.0
600.52;24.0
600.92;23.0
601.32;23.0
601.71;23.0
602.11;23.0
602.50;21.0
602.90;22.0
603.29;21.0
603.69;21.0
604.09;21.0
604.48;20.0
604.88;20.0
605.27;20.0
605.67;19.0
606.06;19.0
606.46;19.0
606.85;18.0
607.25;18.0
607.64;18.0
608.04;18.0
608.43;18.0
608.83;18.0
609.22;16.0
609.62;16.0
610.01;16.0
610.41;16.0
610.80;14.0
611.20;14.0
611.59;14.0
611.99;14.0
612.38;14.0
612.78;13.0
613.17;12.0
613.56;12.0
613.96;12.0
614.35;11.0
614.75;11.0
615.14;11.0
615.54;10.0
615.93;9.0
616.32;8.0
616.72;8.0
617.11;7.0
617.51;7.0
617.90;7.0
618.29;7.0
618.69;7.0
619.08;7.0
619.47;7.0
619.87;6.0
620.26;5.0
620.65;5.0
621.05;5.0
621.44;5.0
621.83;5.0
622.23;4.0
622.62;4.0
623.01;4.0
623.41;4.0
623.80;4.0
624.19;4.0
624.58;4.0
624.98;4.0
625.37;3.0
625.76;3.0
626.15;3.0
626.55;3.0
626.94;3.0
627.33;3.0
627.72;3.0
628.12;3.0
628.51;2.0
628.90;2.0
629.29;2.0
629.69;2.0
630.08;2.0
630.47;2.0
630.86;3.0
631.25;2.0
631.65;2.0
632.04;2.0
632.43;2.0
632.82;2.0
633.21;2.0
633.60;2.0
633.99;2.0
634.39;2.0
634.78;2.0
635.17;2.0
635.56;3.0
635.95;3.0
636.34;3.0
636.73;3.0
637.13;3.0
637.52;3.0
637.91;3.0
638.30;3.0
638.69;3.0
639.08;3.0
639.47;3.0
639.86;3.0
640.25;3.0
640.64;3.0
641.03;3.0
641.42;3.0
641.81;3.0
642.20;2.0
642.59;2.0
642.98;3.0
643.37;2.0
643.76;3.0
644.16;3.0
644.55;3.0
644.94;3.0
645.33;3.0
645.71;3.0
646.10;3.0
646.49;3.0
646.88;3.0
647.27;3.0
647.66;3.0
648.05;4.0
648.44;4.0
648.83;4.0
649.22;4.0
649.61;3.0
650.00;4.0
650.39;3.0
650.78;4.0
651.17;4.0
651.56;4.0
651.95;4.0
652.33;4.0
652.72;5.0
653.11;5.0
653.50;5.0
653.89;5.0
654.28;5.0
654.67;5.0
655.06;5.0
655.44;5.0
655.83;5.0
656.22;5.0
656.61;5.0
657.00;5.0
657.39;5.0
657.77;5.0
658.16;5.0
658.55;5.0
658.94;5.0
659.33;5.0
659.71;5.0
660.10;7.0
660.49;7.0
660.88;7.0
661.27;7.0
661.65;7.0
662.04;7.0
662.43;7.0
662.82;7.0
663.20;7.0
663.59;7.0
663.98;7.0
664.37;7.0
664.75;7.0
665.14;7.0
665.53;7.0
665.91;7.0
666.30;7.0
666.69;7.0
667.07;7.0
667.46;7.0
667.85;7.0
668.24;7.0
668.62;7.0
669.01;7.0
669.39;7.0
669.78;7.0
670.17;7.0
670.55;7.0
670.94;7.0
671.33;8.0
671.71;8.0
672.10;8.0
672.49;8.0
672.87;8.0
673.26;7.0
673.64;8.0
674.03;8.0
674.42;8.0
674.80;8.0
675.19;8.0
675.57;8.0
675.96;8.0
676.34;8.0
676.73;8.0
677.11;8.0
677.50;7.0
677.89;8.0
678.27;8.0
678.66;8.0
679.04;8.0
679.43;8.0
679.81;7.0
680.20;7.0
680.58;7.0
680.97;7.0
681.35;7.0
681.74;7.0
682.12;7.0
682.51;7.0
682.89;7.0
683.28;7.0
683.66;7.0
684.04;7.0
684.43;7.0
684.81;7.0
685.20;7.0
685.58;7.0
685.97;7.0
686.35;7.0
686.73;7.0
687.12;7.0
687.50;7.0
687.89;7.0
688.27;7.0
688.65;7.0
689.04;7.0
689.42;7.0
689.81;7.0
690.19;7.0
690.57;7.0
690.96;6.0
691.34;7.0
691.72;6.0
692.11;5.0
692.49;5.0
692.87;5.0
693.26;5.0
693.64;5.0
