t (s),V (mV)
0,19.8414
0.968,19.8177
1.9,19.7832
2.897,19.7555
3.897,19.7259
4.897,19.6949
5.897,19.6662
6.897,19.6344
7.897,19.6035
8.898,19.5719
9.897,19.5431
10.897,19.512
11.897,19.4814
12.897,19.4505
13.897,19.4204
14.897,19.3892
15.897,19.3593
16.897,19.3295
17.897,19.2997
18.898,19.2705
19.897,19.24
20.898,19.209
21.897,19.1798
22.897,19.1495
23.897,19.1197
24.897,19.0901
25.897,19.0597
26.898,19.0304
27.897,19.0007
28.897,18.9721
29.897,18.9429
30.898,18.9137
31.897,18.8843
32.897,18.8546
33.897,18.8262
34.897,18.7969
35.897,18.7677
36.897,18.7388
37.897,18.7108
38.897,18.6819
39.897,18.6525
40.897,18.6253
41.897,18.5958
42.898,18.5674
43.897,18.5389
44.898,18.5102
45.897,18.4822
46.897,18.4541
47.897,18.4266
48.897,18.3978
49.897,18.3698
50.897,18.3415
51.897,18.3134
52.898,18.2855
53.897,18.2586
54.897,18.2291
55.897,18.1968
56.897,18.1715
57.897,18.1445
58.897,18.1174
59.897,18.0907
60.897,18.0625
61.898,18.0363
62.897,18.0086
63.898,17.9823
64.897,17.9542
65.897,17.9268
66.897,17.8988
67.897,17.8713
68.897,17.8448
69.897,17.817
70.897,17.789
71.898,17.7638
72.897,17.7364
73.897,17.7089
74.897,17.681
75.897,17.6549
76.897,17.6261
77.897,17.6002
78.897,17.5689
79.897,17.5427
80.897,17.5176
81.897,17.4933
82.897,17.4675
83.897,17.4407
84.897,17.4144
85.897,17.3876
86.897,17.3617
87.897,17.336
88.897,17.3094
89.897,17.2835
90.897,17.2592
91.897,17.233
92.897,17.2066
93.897,17.1809
94.897,17.1563
95.897,17.1297
96.897,17.1052
97.897,17.0795
98.898,17.0551
99.897,17.0293
100.897,17.003
101.897,16.9799
102.897,16.9554
103.897,16.9298
104.897,16.9035
105.898,16.8806
106.897,16.8557
107.897,16.8296
108.898,16.8067
109.897,16.7817
110.897,16.7562
111.897,16.7323
112.897,16.7088
113.897,16.6848
114.897,16.659
115.897,16.636
116.897,16.6116
117.897,16.5863
118.897,16.5622
119.897,16.5027
120.897,16.3676
121.897,16.3996
122.897,16.4358
123.897,16.4309
124.897,16.4109
125.897,16.3891
126.897,16.3648
127.897,16.3416
128.898,16.3173
129.897,16.2945
130.897,16.2696
131.898,16.2454
132.897,16.2219
133.898,16.1981
134.897,16.1746
135.898,16.1499
136.897,16.1264
137.897,16.1041
138.897,16.0799
139.897,16.0568
140.897,16.0327
141.897,16.0093
142.897,15.9846
143.899,15.9583
144.897,15.9381
145.897,15.9151
146.897,15.89
147.897,15.868
148.897,15.8428
149.897,15.8201
150.897,15.7973
151.897,15.7733
152.897,15.7502
153.897,15.7275
154.897,15.7064
155.897,15.6826
156.897,15.6603
157.898,15.6371
158.897,15.6143
159.897,15.5911
160.897,15.5683
161.897,15.5454
162.897,15.5231
163.897,15.5001
164.897,15.4778
165.897,15.4567
166.898,15.4337
167.897,15.4118
168.897,15.3906
169.897,15.3666
170.897,15.3452
171.898,15.3221
172.897,15.3011
173.897,15.2794
174.898,15.2573
175.897,15.2352
176.897,15.2121
177.897,15.1907
178.897,15.1685
179.897,15.1474
180.897,15.1244
181.897,15.102
182.897,15.0811
183.898,15.0592
184.897,15.0371
185.897,15.0153
186.897,14.9937
187.897,14.9723
188.897,14.9494
189.897,14.9291
190.897,14.9067
191.897,14.8864
192.897,14.8645
193.897,14.8439
194.897,14.8218
195.897,14.8016
196.897,14.7797
197.897,14.7589
198.897,14.7374
199.897,14.716
200.897,14.6952
201.897,14.6756
202.897,14.6545
203.897,14.6334
204.899,14.617
205.897,14.5925
206.897,14.5732
207.897,14.5511
208.897,14.5302
209.897,14.509
210.897,14.489
211.897,14.4687
212.897,14.4491
213.897,14.4272
214.897,14.406
215.897,14.385
216.897,14.3654
217.897,14.3449
218.898,14.3246
219.897,14.3022
220.898,14.2827
221.897,14.2615
222.897,14.2415
223.897,14.2186
224.897,14.1993
225.897,14.1794
226.897,14.1588
227.897,14.1388
228.897,14.1211
229.897,14.0986
230.898,14.0809
231.897,14.0602
232.897,14.0397
233.897,14.0208
234.897,14.0003
235.898,13.9813
236.897,13.9605
237.897,13.9407
238.897,13.921
239.897,13.902
240.897,13.8822
241.897,13.8629
242.897,13.8422
243.898,13.8234
244.897,13.8026
245.897,13.7815
246.897,13.7627
247.897,13.7412
248.897,13.7206
249.897,13.7013
250.897,13.6807
251.897,13.6612
252.897,13.6421
253.897,13.6213
254.897,13.6016
255.897,13.5817
256.897,13.5628
257.897,13.542
258.897,13.5239
259.897,13.5044
260.897,13.4848
261.897,13.4666
262.897,13.447
263.897,13.4272
264.897,13.4087
265.898,13.3896
266.897,13.3707
267.897,13.3506
268.897,13.3324
269.898,13.3142
270.897,13.2957
271.897,13.2769
272.898,13.258
273.897,13.2385
274.897,13.2203
275.897,13.2001
276.897,13.1823
277.897,13.1639
278.898,13.1458
279.897,13.1274
280.897,13.1091
281.897,13.0901
282.897,13.0726
283.897,13.0568
284.897,13.0362
285.897,13.0186
286.897,13.0012
287.898,12.9818
288.897,12.966
289.897,12.9475
290.897,12.9298
291.897,12.9126
292.897,12.8943
293.897,12.8756
294.897,12.8589
295.897,12.842
296.897,12.8244
297.898,12.8052
298.897,12.7885
299.897,12.772
300.898,12.7528
301.898,12.7344
302.897,12.7182
303.897,12.6998
304.897,12.6828
305.897,12.6645
306.897,12.6469
307.897,12.63
308.897,12.6112
309.897,12.593
310.897,12.5759
311.898,12.5576
312.898,12.5396
313.897,12.5222
314.897,12.505
315.897,12.4874
316.897,12.4705
317.897,12.4531
318.898,12.4346
319.898,12.4168
320.898,12.3987
321.897,12.3824
322.898,12.366
323.897,12.3476
324.897,12.3314
325.897,12.313
326.897,12.2954
327.898,12.2774
328.897,12.2603
329.897,12.2429
330.897,12.2255
331.897,12.208
332.898,12.1896
333.897,12.1726
334.897,12.1558
335.898,12.1366
336.897,12.1198
337.897,12.1025
338.897,12.0856
339.898,12.0679
340.897,12.0506
341.897,12.0345
342.897,12.0168
343.897,12.0012
344.897,11.9816
345.897,11.9647
346.897,11.9491
347.897,11.9327
348.898,11.9138
349.897,11.8972
350.897,11.882
351.897,11.8639
352.897,11.8471
353.897,11.8303
354.897,11.8148
355.897,11.7994
356.898,11.7806
357.897,11.7671
358.897,11.7507
359.897,11.7328
360.897,11.7159
361.897,11.7011
362.897,11.684
363.897,11.6685
364.898,11.6516
365.897,11.6361
366.897,11.6199
367.897,11.6034
368.898,11.5854
369.897,11.5696
370.897,11.5548
371.898,11.5361
372.897,11.5212
373.897,11.506
374.897,11.4896
375.898,11.4727
376.897,11.457
377.897,11.4408
378.897,11.4255
379.897,11.4094
380.897,11.3936
381.897,11.3784
382.897,11.3615
383.897,11.3462
384.897,11.3302
385.897,11.3151
386.897,11.3005
387.897,11.2838
388.897,11.2686
389.897,11.2518
390.897,11.2388
391.897,11.2214
392.897,11.207
393.898,11.1899
394.897,11.1753
395.898,11.158
396.897,11.143
397.897,11.129
398.897,11.1125
399.898,11.0955
400.897,11.0814
401.897,11.0654
402.898,11.0483
403.897,11.0343
404.897,11.019
405.897,11.0024
406.897,10.9876
407.897,10.9738
408.897,10.9574
409.898,10.9417
410.897,10.927
411.897,10.913
412.898,10.8956
413.897,10.8806
414.897,10.8669
415.898,10.8504
416.897,10.8361
417.897,10.8219
418.897,10.8071
419.898,10.7907
420.897,10.7767
421.897,10.763
422.898,10.7469
423.897,10.7323
424.897,10.7182
425.898,10.7025
426.897,10.6882
427.897,10.6744
428.898,10.6591
429.897,10.6442
430.897,10.6299
431.897,10.614
432.897,10.5995
433.896,10.585
434.896,10.5704
435.896,10.5556
436.896,10.5408
437.896,10.5261
438.896,10.5117
439.896,10.4961
440.896,10.4834
441.896,10.4668
442.896,10.4528
443.896,10.4389
444.896,10.4243
445.896,10.4095
446.896,10.3944
447.896,10.3799
448.896,10.3641
449.896,10.3508
450.896,10.336
451.896,10.3215
452.896,10.3074
453.896,10.2925
454.896,10.2785
455.896,10.2632
456.896,10.2495
457.896,10.2339
458.896,10.2199
459.896,10.2056
460.896,10.1912
461.896,10.1765
462.896,10.1617
463.896,10.1467
464.896,10.1308
465.896,10.116
466.896,10.1007
467.896,10.0799
468.896,10.0637
469.896,10.0526
470.896,10.0394
471.896,10.0272
472.896,10.0142
473.896,10.0005
474.897,9.9871
475.897,9.9726
476.898,9.9582
477.897,9.9452
478.897,9.9314
479.897,9.9185
480.897,9.9046
481.898,9.8908
482.897,9.8778
483.897,9.8648
484.897,9.8527
485.897,9.8388
486.898,9.8254
487.897,9.812
488.897,9.8004
489.898,9.7856
490.897,9.7727
491.897,9.76
492.897,9.7473
493.897,9.7344
494.898,9.7199
495.897,9.708
496.897,9.6945
